 Au Density=19.32, Angle=90.deg
 Photon Energy (eV), Atten Length (microns)
   11863.6  6.96688
   11864.1  6.96763
   11864.6  6.96839
   11865.1  6.96914
   11865.6  6.96991
   11866.1  6.97067
   11866.6  6.97142
   11867.1  6.97218
   11867.6  6.97293
   11868.1  6.97369
   11868.6  6.97446
   11869.1  6.97521
   11869.6  6.97597
   11870.1  6.97672
   11870.6  6.97748
   11871.1  6.97824
   11871.6  6.97901
   11872.1  6.97976
   11872.6  6.98052
   11873.1  6.98128
   11873.6  6.98203
   11874.1  6.98279
   11874.6  6.98356
   11875.1  6.98431
   11875.6  6.98507
   11876.1  6.98583
   11876.6  6.98659
   11877.1  6.98734
   11877.6  6.98810
   11878.1  6.98887
   11878.6  6.98963
   11879.1  6.99038
   11879.6  6.99114
   11880.1  6.99190
   11880.6  6.99266
   11881.1  6.99341
   11881.6  6.99418
   11882.1  6.99494
   11882.6  6.99570
   11883.1  6.99646
   11883.6  6.99722
   11884.1  6.99797
   11884.6  6.99873
   11885.1  6.99949
   11885.6  7.00025
   11886.1  7.00102
   11886.6  7.00178
   11887.1  7.00254
   11887.6  7.00330
   11888.1  7.00405
   11888.6  7.00481
   11889.1  7.00557
   11889.6  7.00633
   11890.1  7.00709
   11890.6  7.00786
   11891.1  7.00862
   11891.6  7.00938
   11892.1  7.01014
   11892.6  7.01090
   11893.1  7.01166
   11893.6  7.01242
   11894.1  7.01318
   11894.6  7.01394
   11895.1  7.01470
   11895.6  7.01546
   11896.1  7.01622
   11896.6  7.01698
   11897.1  7.01775
   11897.6  7.01851
   11898.1  7.01927
   11898.6  7.02003
   11899.1  7.02079
   11899.6  7.02155
   11900.1  7.02231
   11900.6  7.02307
   11901.1  7.02383
   11901.6  7.02459
   11902.1  7.02535
   11902.6  7.02611
   11903.1  7.02688
   11903.6  7.02763
   11904.1  7.02840
   11904.6  7.02916
   11905.1  7.02992
   11905.6  7.03068
   11906.1  7.03144
   11906.6  7.03221
   11907.1  7.03298
   11907.6  7.03374
   11908.1  7.03450
   11908.6  7.03526
   11909.1  7.03602
   11909.6  7.03679
   11910.1  7.03755
   11910.6  7.03831
   11911.1  7.03907
   11911.6  7.03983
   11912.1  7.04060
   11912.6  7.04136
   11913.1  7.04212
   11913.6  7.04288
   11914.1  7.04364
   11914.6  7.04441
   11915.1  7.04517
   11915.6  7.04593
   11916.1  7.04670
   11916.6  7.04746
   11917.1  7.04822
   11917.6  7.04899
   11918.1  7.04975
   11918.6  7.05051
   11919.1  2.82832
   11919.6  2.82865
   11920.1  2.82897
   11920.6  2.82929
   11921.1  2.82961
   11921.6  2.82994
   11922.1  2.83026
   11922.6  2.83058
   11923.1  2.83091
   11923.6  2.83123
   11924.1  2.83155
   11924.6  2.83188
   11925.1  2.83220
   11925.6  2.83252
   11926.1  2.83284
   11926.6  2.83317
   11927.1  2.83349
   11927.6  2.83381
   11928.1  2.83414
   11928.6  2.83446
   11929.1  2.83478
   11929.6  2.83511
   11930.1  2.83543
   11930.6  2.83575
   11931.1  2.83608
   11931.6  2.83640
   11932.1  2.83672
   11932.6  2.83705
   11933.1  2.83737
   11933.6  2.83770
   11934.1  2.83802
   11934.6  2.83834
   11935.1  2.83866
   11935.6  2.83899
   11936.1  2.83931
   11936.6  2.83963
   11937.1  2.83996
   11937.6  2.84028
   11938.1  2.84061
   11938.6  2.84093
   11939.1  2.84126
   11939.6  2.84158
   11940.1  2.84190
   11940.6  2.84223
   11941.1  2.84255
   11941.6  2.84287
   11942.1  2.84320
   11942.6  2.84352
   11943.1  2.84385
   11943.6  2.84417
   11944.1  2.84449
   11944.6  2.84482
   11945.1  2.84514
   11945.6  2.84547
   11946.1  2.84579
   11946.6  2.84611
   11947.1  2.84644
   11947.6  2.84676
   11948.1  2.84709
   11948.6  2.84741
   11949.1  2.84774
   11949.6  2.84806
   11950.1  2.84838
   11950.6  2.84871
   11951.1  2.84903
   11951.6  2.84936
   11952.1  2.84968
   11952.6  2.85001
   11953.1  2.85033
   11953.6  2.85066
   11954.1  2.85098
   11954.6  2.85130
   11955.1  2.85163
   11955.6  2.85195
   11956.1  2.85228
   11956.6  2.85260
   11957.1  2.85292
   11957.6  2.85325
   11958.1  2.85357
   11958.6  2.85390
   11959.1  2.85422
   11959.6  2.85455
   11960.1  2.85488
   11960.6  2.85520
   11961.1  2.85552
   11961.6  2.85585
   11962.1  2.85617
   11962.6  2.85650
   11963.1  2.85682
   11963.6  2.85715
   11964.1  2.85747
   11964.6  2.85780
   11965.1  2.85812
   11965.6  2.85845
   11966.1  2.85877
   11966.6  2.85910
   11967.1  2.85942
   11967.6  2.85975
   11968.1  2.86007
   11968.6  2.86040
   11969.1  2.86072
   11969.6  2.86105
   11970.1  2.86137
   11970.6  2.86170
   11971.1  2.86203
   11971.6  2.86235
   11972.1  2.86267
   11972.6  2.86300
   11973.1  2.86333
   11973.6  2.86365
   11974.1  2.86397
   11974.6  2.86430
   11975.1  2.86463
   11975.6  2.86495
   11976.1  2.86528
   11976.6  2.86560
   11977.1  2.86593
   11977.6  2.86626
   11978.1  2.86658
   11978.6  2.86690
   11979.1  2.86723
   11979.6  2.86756
   11980.1  2.86788
   11980.6  2.86821
   11981.1  2.86853
   11981.6  2.86886
   11982.1  2.86919
   11982.6  2.86951
   11983.1  2.86984
   11983.6  2.87016
   11984.1  2.87049
   11984.6  2.87081
   11985.1  2.87114
   11985.6  2.87147
   11986.1  2.87179
   11986.6  2.87212
   11987.1  2.87244
   11987.6  2.87277
   11988.1  2.87310
   11988.6  2.87342
   11989.1  2.87375
   11989.6  2.87408
   11990.1  2.87440
   11990.6  2.87473
   11991.1  2.87505
   11991.6  2.87538
   11992.1  2.87570
   11992.6  2.87603
   11993.1  2.87636
   11993.6  2.87668
   11994.1  2.87701
   11994.6  2.87734
   11995.1  2.87767
   11995.6  2.87799
   11996.1  2.87832
   11996.6  2.87864
   11997.1  2.87897
   11997.6  2.87929
   11998.1  2.87962
   11998.6  2.87995
   11999.1  2.88027
   11999.6  2.88060
   12000.1  2.88093
   12000.6  2.88125
   12001.1  2.88158
   12001.6  2.88191
   12002.1  2.88223
   12002.6  2.88256
   12003.1  2.88289
   12003.6  2.88321
   12004.1  2.88354
   12004.6  2.88387
   12005.1  2.88419
   12005.6  2.88452
   12006.1  2.88485
   12006.6  2.88517
   12007.1  2.88550
   12007.6  2.88583
   12008.1  2.88616
   12008.6  2.88648
   12009.1  2.88681
   12009.6  2.88714
   12010.1  2.88747
   12010.6  2.88779
   12011.1  2.88812
   12011.6  2.88845
   12012.1  2.88878
   12012.6  2.88910
   12013.1  2.88943
   12013.6  2.88976
   12014.1  2.89008
   12014.6  2.89041
   12015.1  2.89074
   12015.6  2.89106
   12016.1  2.89139
   12016.6  2.89172
   12017.1  2.89205
   12017.6  2.89238
   12018.1  2.89270
   12018.6  2.89303
   12019.1  2.89336
   12019.6  2.89368
   12020.1  2.89401
   12020.6  2.89434
   12021.1  2.89467
   12021.6  2.89500
   12022.1  2.89532
   12022.6  2.89565
   12023.1  2.89598
   12023.6  2.89630
   12024.1  2.89663
   12024.6  2.89696
   12025.1  2.89729
   12025.6  2.89761
   12026.1  2.89794
   12026.6  2.89827
   12027.1  2.89860
   12027.6  2.89893
   12028.1  2.89925
   12028.6  2.89958
   12029.1  2.89991
   12029.6  2.90024
   12030.1  2.90057
   12030.6  2.90089
   12031.1  2.90122
   12031.6  2.90155
   12032.1  2.90188
   12032.6  2.90221
   12033.1  2.90253
   12033.6  2.90286
   12034.1  2.90319
   12034.6  2.90352
   12035.1  2.90384
   12035.6  2.90417
   12036.1  2.90450
   12036.6  2.90483
   12037.1  2.90516
   12037.6  2.90548
   12038.1  2.90581
   12038.6  2.90614
   12039.1  2.90647
   12039.6  2.90680
   12040.1  2.90713
   12040.6  2.90746
   12041.1  2.90778
   12041.6  2.90811
   12042.1  2.90844
   12042.6  2.90877
   12043.1  2.90909
   12043.6  2.90943
   12044.1  2.90975
   12044.6  2.91008
   12045.1  2.91041
   12045.6  2.91074
   12046.1  2.91106
   12046.6  2.91140
   12047.1  2.91172
   12047.6  2.91205
   12048.1  2.91238
   12048.6  2.91271
   12049.1  2.91304
   12049.6  2.91337
   12050.1  2.91370
   12050.6  2.91402
   12051.1  2.91436
   12051.6  2.91468
   12052.1  2.91501
   12052.6  2.91534
   12053.1  2.91567
   12053.6  2.91600
   12054.1  2.91633
   12054.6  2.91666
   12055.1  2.91699
   12055.6  2.91731
   12056.1  2.91764
   12056.6  2.91797
   12057.1  2.91830
   12057.6  2.91863
   12058.1  2.91896
   12058.6  2.91929
   12059.1  2.91962
   12059.6  2.91995
   12060.1  2.92027
   12060.6  2.92060
   12061.1  2.92093
   12061.6  2.92126
   12062.1  2.92159
   12062.6  2.92192
   12063.1  2.92225
   12063.6  2.92258
   12064.1  2.92291
   12064.6  2.92324
   12065.1  2.92357
   12065.6  2.92390
   12066.1  2.92423
   12066.6  2.92456
   12067.1  2.92489
   12067.6  2.92522
   12068.1  2.92555
   12068.6  2.92588
   12069.1  2.92621
   12069.6  2.92653
   12070.1  2.92686
   12070.6  2.92720
   12071.1  2.92752
   12071.6  2.92786
   12072.1  2.92818
   12072.6  2.92851
   12073.1  2.92884
   12073.6  2.92917
   12074.1  2.92950
   12074.6  2.92983
   12075.1  2.93016
   12075.6  2.93049
   12076.1  2.93082
   12076.6  2.93115
   12077.1  2.93148
   12077.6  2.93181
   12078.1  2.93214
   12078.6  2.93247
   12079.1  2.93280
   12079.6  2.93313
   12080.1  2.93346
   12080.6  2.93379
   12081.1  2.93413
   12081.6  2.93445
   12082.1  2.93478
   12082.6  2.93512
   12083.1  2.93544
   12083.6  2.93578
   12084.1  2.93611
   12084.6  2.93643
   12085.1  2.93677
   12085.6  2.93710
   12086.1  2.93743
   12086.6  2.93776
   12087.1  2.93809
   12087.6  2.93842
   12088.1  2.93875
   12088.6  2.93908
   12089.1  2.93941
   12089.6  2.93974
   12090.1  2.94007
   12090.6  2.94040
   12091.1  2.94073
   12091.6  2.94107
   12092.1  2.94139
   12092.6  2.94172
   12093.1  2.94206
   12093.6  2.94239
   12094.1  2.94272
   12094.6  2.94305
   12095.1  2.94338
   12095.6  2.94371
   12096.1  2.94404
   12096.6  2.94437
   12097.1  2.94470
   12097.6  2.94503
   12098.1  2.94536
   12098.6  2.94569
   12099.1  2.94603
   12099.6  2.94636
   12100.1  2.94669
   12100.6  2.94702
   12101.1  2.94735
   12101.6  2.94768
   12102.1  2.94801
   12102.6  2.94834
   12103.1  2.94867
   12103.6  2.94901
   12104.1  2.94934
   12104.6  2.94967
   12105.1  2.95000
   12105.6  2.95033
   12106.1  2.95066
   12106.6  2.95100
   12107.1  2.95133
   12107.6  2.95166
   12108.1  2.95199
   12108.6  2.95232
   12109.1  2.95265
   12109.6  2.95298
   12110.1  2.95332
   12110.6  2.95365
   12111.1  2.95398
   12111.6  2.95431
   12112.1  2.95464
   12112.6  2.95497
   12113.1  2.95530
   12113.6  2.95564
