 H Density=1., Angle=90.deg
 Photon Energy (eV), Atten Length (microns)
   6800.00  28766.2
   6812.40  28760.9
   6824.80  28755.6
   6837.20  28750.2
   6849.60  28744.8
   6862.00  28739.5
   6874.40  28734.1
   6886.80  28728.6
   6899.20  28723.2
   6911.60  28717.7
   6924.00  28712.2
   6936.40  28706.7
   6948.80  28701.1
   6961.20  28695.6
   6973.60  28690.0
   6986.00  28684.4
   6998.40  28678.8
   7010.80  28673.1
   7023.20  28667.5
   7035.60  28661.8
   7048.00  28656.1
   7060.40  28650.4
   7072.80  28644.7
   7085.20  28638.9
   7097.60  28633.2
   7110.00  28627.4
   7122.40  28621.6
   7134.80  28615.8
   7147.20  28610.0
   7159.60  28604.1
   7172.00  28598.2
   7184.40  28592.4
   7196.80  28586.5
   7209.20  28580.6
   7221.60  28574.7
   7234.00  28568.7
   7246.40  28562.8
   7258.80  28556.8
   7271.20  28550.9
   7283.60  28544.9
   7296.00  28538.9
   7308.40  28532.9
   7320.80  28526.8
   7333.20  28520.8
   7345.60  28514.8
   7358.00  28508.7
   7370.40  28502.6
   7382.80  28496.6
   7395.20  28490.5
   7407.60  28484.4
   7420.00  28478.2
   7432.40  28472.1
   7444.80  28466.0
   7457.20  28459.8
   7469.60  28453.7
   7482.00  28447.5
   7494.40  28441.4
   7506.80  28435.2
   7519.20  28429.0
   7531.60  28422.8
   7544.00  28416.6
   7556.40  28410.4
   7568.80  28404.1
   7581.20  28397.9
   7593.60  28391.7
   7606.00  28385.4
   7618.40  28379.2
   7630.80  28372.9
   7643.20  28366.6
   7655.60  28360.4
   7668.00  28354.1
   7680.40  28347.8
   7692.80  28341.5
   7705.20  28335.2
   7717.60  28328.9
   7730.00  28322.6
   7742.40  28316.2
   7754.80  28309.9
   7767.20  28303.6
   7779.60  28297.3
   7792.00  28290.9
   7804.40  28284.6
   7816.80  28278.2
   7829.20  28271.9
   7841.60  28265.5
   7854.00  28259.1
   7866.40  28252.8
   7878.80  28246.4
   7891.20  28240.0
   7903.60  28233.6
   7916.00  28227.2
   7928.40  28220.8
   7940.80  28214.5
   7953.20  28208.1
   7965.60  28201.7
   7978.00  28195.3
   7990.40  28188.8
   8002.80  28183.3
   8015.20  28180.8
   8027.60  28178.3
   8040.00  28175.7
   8052.40  28173.2
   8064.80  28170.6
   8077.20  28168.0
   8089.60  28165.5
   8102.00  28162.9
   8114.40  28160.3
   8126.80  28157.7
   8139.20  28155.1
   8151.60  28152.5
   8164.00  28149.8
   8176.40  28147.2
   8188.80  28144.6
   8201.20  28141.9
   8213.60  28139.3
   8226.00  28136.6
   8238.40  28133.9
   8250.80  28131.3
   8263.20  28128.6
   8275.60  28125.9
   8288.00  28123.2
   8300.40  28120.5
   8312.80  28117.8
   8325.20  28115.0
   8337.60  28112.3
   8350.00  28109.6
   8362.40  28106.8
   8374.80  28104.1
   8387.20  28101.3
   8399.60  28098.6
   8412.00  28095.8
   8424.40  28093.0
   8436.80  28090.3
   8449.20  28087.5
   8461.60  28084.7
   8474.00  28081.9
   8486.40  28079.1
   8498.80  28076.3
   8511.20  28073.5
   8523.60  28070.7
   8536.00  28067.9
   8548.40  28065.0
   8560.80  28062.2
   8573.20  28059.4
   8585.60  28056.5
   8598.00  28053.7
   8610.40  28050.8
   8622.80  28048.0
   8635.20  28045.1
   8647.60  28042.2
   8660.00  28039.4
   8672.40  28036.5
   8684.80  28033.6
   8697.20  28030.7
   8709.60  28027.8
   8722.00  28025.0
   8734.40  28022.1
   8746.80  28019.2
   8759.20  28016.3
   8771.60  28013.4
   8784.00  28010.4
   8796.40  28007.5
   8808.80  28004.6
   8821.20  28001.7
   8833.60  27998.8
   8846.00  27995.8
   8858.40  27992.9
   8870.80  27990.0
   8883.20  27987.0
   8895.60  27984.1
   8908.00  27981.2
   8920.40  27978.2
   8932.80  27975.2
   8945.20  27972.3
   8957.60  27969.3
   8970.00  27966.4
   8982.40  27963.4
   8994.80  27960.4
   9007.20  27957.5
   9019.60  27954.5
   9032.00  27951.5
   9044.40  27948.6
   9056.80  27945.6
   9069.20  27942.6
   9081.60  27939.6
   9094.00  27936.6
   9106.40  27933.6
   9118.80  27930.7
   9131.20  27927.7
   9143.60  27924.7
   9156.00  27921.7
   9168.40  27918.7
   9180.80  27915.7
   9193.20  27912.7
   9205.60  27909.6
   9218.00  27906.6
   9230.40  27903.6
   9242.80  27900.6
   9255.20  27897.6
   9267.60  27894.6
   9280.00  27891.6
   9292.40  27888.6
   9304.80  27885.5
   9317.20  27882.5
   9329.60  27879.5
   9342.00  27876.5
   9354.40  27873.4
   9366.80  27870.4
   9379.20  27867.4
   9391.60  27864.4
   9404.00  27861.3
   9416.40  27858.3
   9428.80  27855.3
   9441.20  27852.2
   9453.60  27849.2
   9466.00  27846.1
   9478.40  27843.1
   9490.80  27840.1
   9503.20  27837.0
   9515.60  27834.0
   9528.00  27830.9
   9540.40  27827.9
   9552.80  27824.9
   9565.20  27821.8
   9577.60  27818.8
   9590.00  27815.7
   9602.40  27812.7
   9614.80  27809.6
   9627.20  27806.6
   9639.60  27803.5
   9652.00  27800.5
   9664.40  27797.4
   9676.80  27794.4
   9689.20  27791.3
   9701.60  27788.3
   9714.00  27785.2
   9726.40  27782.1
   9738.80  27779.1
   9751.20  27776.0
   9763.60  27773.0
   9776.00  27769.9
   9788.40  27766.9
   9800.80  27763.8
   9813.20  27760.8
   9825.60  27757.7
   9838.00  27754.6
   9850.40  27751.6
   9862.80  27748.5
   9875.20  27745.5
   9887.60  27742.4
   9900.00  27739.4
   9912.40  27736.3
   9924.80  27733.2
   9937.20  27730.2
   9949.60  27727.1
   9962.00  27724.1
   9974.40  27721.0
   9986.80  27717.9
   9999.20  27714.9
   10011.6  27714.2
   10024.0  27713.7
   10036.4  27713.1
   10048.8  27712.6
   10061.2  27712.1
   10073.6  27711.5
   10086.0  27711.0
   10098.4  27710.4
   10110.8  27709.9
   10123.2  27709.3
   10135.6  27708.8
   10148.0  27708.2
   10160.4  27707.6
   10172.8  27707.1
   10185.2  27706.5
   10197.6  27705.9
   10210.0  27705.4
   10222.4  27704.8
   10234.8  27704.2
   10247.2  27703.6
   10259.6  27703.0
   10272.0  27702.5
   10284.4  27701.9
   10296.8  27701.3
   10309.2  27700.7
   10321.6  27700.1
   10334.0  27699.5
   10346.4  27698.9
   10358.8  27698.3
   10371.2  27697.7
   10383.6  27697.1
   10396.0  27696.5
   10408.4  27695.8
   10420.8  27695.2
   10433.2  27694.6
   10445.6  27694.0
   10458.0  27693.4
   10470.4  27692.7
   10482.8  27692.1
   10495.2  27691.5
   10507.6  27690.8
   10520.0  27690.2
   10532.4  27689.6
   10544.8  27688.9
   10557.2  27688.3
   10569.6  27687.7
   10582.0  27687.0
   10594.4  27686.4
   10606.8  27685.7
   10619.2  27685.1
   10631.6  27684.4
   10644.0  27683.8
   10656.4  27683.1
   10668.8  27682.4
   10681.2  27681.8
   10693.6  27681.1
   10706.0  27680.4
   10718.4  27679.8
   10730.8  27679.1
   10743.2  27678.4
   10755.6  27677.8
   10768.0  27677.1
   10780.4  27676.4
   10792.8  27675.7
   10805.2  27675.1
   10817.6  27674.4
   10830.0  27673.7
   10842.4  27673.0
   10854.8  27672.3
   10867.2  27671.6
   10879.6  27671.0
   10892.0  27670.3
   10904.4  27669.6
   10916.8  27668.9
   10929.2  27668.2
   10941.6  27667.5
   10954.0  27666.8
   10966.4  27666.1
   10978.8  27665.4
   10991.2  27664.7
   11003.6  27664.0
   11016.0  27663.3
   11028.4  27662.6
   11040.8  27661.9
   11053.2  27661.1
   11065.6  27660.4
   11078.0  27659.7
   11090.4  27659.0
   11102.8  27658.3
   11115.2  27657.6
   11127.6  27656.9
   11140.0  27656.1
   11152.4  27655.4
   11164.8  27654.7
   11177.2  27654.0
   11189.6  27653.3
   11202.0  27652.5
   11214.4  27651.8
   11226.8  27651.1
   11239.2  27650.3
   11251.6  27649.6
   11264.0  27648.9
   11276.4  27648.1
   11288.8  27647.4
   11301.2  27646.7
   11313.6  27645.9
   11326.0  27645.2
   11338.4  27644.5
   11350.8  27643.7
   11363.2  27643.0
   11375.6  27642.2
   11388.0  27641.5
   11400.4  27640.8
   11412.8  27640.0
   11425.2  27639.3
   11437.6  27638.5
   11450.0  27637.8
   11462.4  27637.0
   11474.8  27636.3
   11487.2  27635.5
   11499.6  27634.8
   11512.0  27634.0
   11524.4  27633.2
   11536.8  27632.5
   11549.2  27631.7
   11561.6  27631.0
   11574.0  27630.2
   11586.4  27629.5
   11598.8  27628.7
   11611.2  27627.9
   11623.6  27627.2
   11636.0  27626.4
   11648.4  27625.7
   11660.8  27624.9
   11673.2  27624.1
   11685.6  27623.4
   11698.0  27622.6
   11710.4  27621.8
   11722.8  27621.0
   11735.2  27620.3
   11747.6  27619.5
   11760.0  27618.7
   11772.4  27618.0
   11784.8  27617.2
   11797.2  27616.4
   11809.6  27615.7
   11822.0  27614.9
   11834.4  27614.1
   11846.8  27613.3
   11859.2  27612.5
   11871.6  27611.8
   11884.0  27611.0
   11896.4  27610.2
   11908.8  27609.4
   11921.2  27608.6
   11933.6  27607.9
   11946.0  27607.1
   11958.4  27606.3
   11970.8  27605.5
   11983.2  27604.7
   11995.6  27604.0
   12008.0  27603.2
   12020.4  27602.4
   12032.8  27601.6
   12045.2  27600.8
   12057.6  27600.0
   12070.0  27599.2
   12082.4  27598.5
   12094.8  27597.7
   12107.2  27596.9
   12119.6  27596.1
   12132.0  27595.3
   12144.4  27594.5
   12156.8  27593.7
   12169.2  27592.9
   12181.6  27592.1
   12194.0  27591.3
   12206.4  27590.5
   12218.8  27589.8
   12231.2  27589.0
   12243.6  27588.2
   12256.0  27587.4
   12268.4  27586.6
   12280.8  27585.8
   12293.2  27585.0
   12305.6  27584.2
   12318.0  27583.4
   12330.4  27582.6
   12342.8  27581.8
   12355.2  27581.0
   12367.6  27580.2
   12380.0  27579.4
   12392.4  27578.6
   12404.8  27577.8
   12417.2  27577.0
   12429.6  27576.2
   12442.0  27575.4
   12454.4  27574.6
   12466.8  27573.8
   12479.2  27573.0
   12491.6  27572.2
   12504.0  27571.4
   12516.4  27570.6
   12528.8  27569.8
   12541.2  27569.0
   12553.6  27568.2
   12566.0  27567.4
   12578.4  27566.6
   12590.8  27565.8
   12603.2  27565.0
   12615.6  27564.2
   12628.0  27563.4
   12640.4  27562.5
   12652.8  27561.7
   12665.2  27560.9
   12677.6  27560.1
   12690.0  27559.3
   12702.4  27558.5
   12714.8  27557.7
   12727.2  27556.9
   12739.6  27556.1
   12752.0  27555.3
   12764.4  27554.5
   12776.8  27553.7
   12789.2  27552.9
   12801.6  27552.1
   12814.0  27551.2
   12826.4  27550.4
   12838.8  27549.6
   12851.2  27548.8
   12863.6  27548.0
   12876.0  27547.2
   12888.4  27546.4
   12900.8  27545.6
   12913.2  27544.8
   12925.6  27544.0
   12938.0  27543.1
   12950.4  27542.3
   12962.8  27541.5
   12975.2  27540.7
   12987.6  27539.9
   13000.0  27539.1
